spectra = [0.0309    0.0134    0.0060    0.0089    0.0109    0.0162    0.0039    0.0868    0.5208    0.2318;
    0.0314    0.0134    0.0061    0.0090    0.0108    0.0163    0.0038    0.0867    0.5155    0.2288;
    0.0310    0.0135    0.0062    0.0092    0.0110    0.0161    0.0037    0.0856    0.5104    0.2287;
    0.0308    0.0136    0.0063    0.0093    0.0112    0.0159    0.0038    0.0848    0.5037    0.2276;
    0.0309    0.0135    0.0063    0.0094    0.0112    0.0157    0.0039    0.0845    0.4987    0.2229;
    0.0310    0.0134    0.0062    0.0093    0.0114    0.0159    0.0040    0.0845    0.4969    0.2222;
    0.0312    0.0133    0.0062    0.0093    0.0114    0.0161    0.0040    0.0840    0.4982    0.2247;
    0.0310    0.0132    0.0062    0.0092    0.0113    0.0161    0.0040    0.0832    0.4978    0.2268;
    0.0308    0.0133    0.0063    0.0092    0.0112    0.0159    0.0039    0.0842    0.5012    0.2265;
    0.0305    0.0133    0.0062    0.0092    0.0111    0.0158    0.0038    0.0858    0.5052    0.2248;
    0.0302    0.0131    0.0062    0.0090    0.0107    0.0158    0.0037    0.0858    0.5033    0.2233;
    0.0304    0.0132    0.0062    0.0088    0.0108    0.0161    0.0037    0.0861    0.4993    0.2286;
    0.0307    0.0134    0.0062    0.0087    0.0109    0.0161    0.0037    0.0854    0.5022    0.2312;
    0.0307    0.0133    0.0060    0.0087    0.0108    0.0159    0.0037    0.0851    0.5053    0.2287;
    0.0310    0.0131    0.0060    0.0088    0.0109    0.0158    0.0038    0.0854    0.5028    0.2285;
    0.0313    0.0132    0.0061    0.0089    0.0110    0.0156    0.0038    0.0855    0.4997    0.2298;
    0.0310    0.0134    0.0062    0.0090    0.0110    0.0159    0.0039    0.0856    0.5004    0.2299;
    0.0310    0.0135    0.0062    0.0091    0.0113    0.0162    0.0040    0.0855    0.5060    0.2316;
    0.0309    0.0135    0.0062    0.0093    0.0116    0.0161    0.0040    0.0858    0.5086    0.2363;
    0.0304    0.0134    0.0062    0.0093    0.0115    0.0160    0.0040    0.0857    0.5068    0.2353;
    0.0300    0.0132    0.0062    0.0092    0.0113    0.0160    0.0039    0.0860    0.5058    0.2316;
    0.0299    0.0131    0.0061    0.0091    0.0112    0.0160    0.0037    0.0861    0.5043    0.2288;
    0.0300    0.0132    0.0062    0.0091    0.0112    0.0159    0.0037    0.0861    0.5030    0.2285;
    0.0304    0.0133    0.0061    0.0091    0.0111    0.0158    0.0038    0.0858    0.5094    0.2282;
    0.0307    0.0134    0.0061    0.0092    0.0110    0.0157    0.0038    0.0853    0.5171    0.2308;
    0.0307    0.0133    0.0061    0.0090    0.0108    0.0158    0.0038    0.0863    0.5182    0.2284;
    0.0303    0.0132    0.0061    0.0089    0.0109    0.0161    0.0038    0.0852    0.5125    0.2282;
    0.0304    0.0133    0.0062    0.0089    0.0110    0.0161    0.0038    0.0848    0.5108    0.2299;
    0.0304    0.0133    0.0062    0.0089    0.0111    0.0160    0.0038    0.0842    0.5084    0.2302;
    0.0305    0.0133    0.0062    0.0090    0.0110    0.0161    0.0038    0.0839    0.5047    0.2276;
    0.0306    0.0133    0.0062    0.0090    0.0110    0.0161    0.0038    0.0839    0.5014    0.2255;
    0.0302    0.0132    0.0061    0.0091    0.0110    0.0160    0.0038    0.0838    0.5028    0.2237;
    0.0294    0.0131    0.0060    0.0091    0.0110    0.0159    0.0038    0.0843    0.5091    0.2210;
    0.0284    0.0132    0.0060    0.0090    0.0109    0.0159    0.0038    0.0844    0.5106    0.2171;
    0.0281    0.0132    0.0060    0.0090    0.0111    0.0159    0.0038    0.0840    0.5083    0.2164;
    0.0287    0.0132    0.0061    0.0090    0.0109    0.0160    0.0038    0.0841    0.5043    0.2129;
    0.0293    0.0132    0.0061    0.0091    0.0110    0.0160    0.0038    0.0842    0.4966    0.2184;
    0.0302    0.0132    0.0061    0.0091    0.0111    0.0160    0.0037    0.0845    0.4935    0.2238;
    0.0305    0.0131    0.0061    0.0091    0.0111    0.0161    0.0037    0.0846    0.4958    0.2261;
    0.0303    0.0130    0.0061    0.0090    0.0110    0.0159    0.0037    0.0844    0.4957    0.2242;
    0.0301    0.0131    0.0061    0.0090    0.0111    0.0156    0.0038    0.0837    0.4937    0.2239;
    0.0303    0.0132    0.0061    0.0090    0.0111    0.0156    0.0038    0.0832    0.4938    0.2250;
    0.0307    0.0133    0.0061    0.0089    0.0110    0.0159    0.0038    0.0840    0.4957    0.2263;
    0.0307    0.0133    0.0062    0.0089    0.0110    0.0160    0.0038    0.0842    0.4989    0.2271;
    0.0304    0.0133    0.0062    0.0089    0.0110    0.0159    0.0038    0.0831    0.4964    0.2272;
    0.0300    0.0132    0.0061    0.0089    0.0111    0.0159    0.0038    0.0832    0.4951    0.2244;
    0.0298    0.0130    0.0061    0.0088    0.0111    0.0160    0.0038    0.0845    0.4945    0.2200;
    0.0304    0.0129    0.0060    0.0087    0.0112    0.0161    0.0037    0.0846    0.4906    0.2181;
    0.0304    0.0129    0.0060    0.0088    0.0113    0.0161    0.0037    0.0841    0.4872    0.2181;
    0.0295    0.0130    0.0060    0.0088    0.0112    0.0160    0.0038    0.0846    0.4906    0.2168;
    0.0286    0.0130    0.0060    0.0087    0.0109    0.0158    0.0039    0.0835    0.4957    0.2151;
    0.0282    0.0131    0.0060    0.0086    0.0109    0.0158    0.0040    0.0818    0.4998    0.2151;
    0.0289    0.0132    0.0061    0.0088    0.0111    0.0158    0.0039    0.0822    0.5013    0.2170;
    0.0295    0.0132    0.0061    0.0089    0.0113    0.0157    0.0038    0.0834    0.4938    0.2188;
    0.0298    0.0131    0.0061    0.0089    0.0114    0.0157    0.0038    0.0829    0.4864    0.2204;
    0.0301    0.0131    0.0060    0.0089    0.0115    0.0158    0.0037    0.0820    0.4838    0.2212;
    0.0298    0.0129    0.0060    0.0089    0.0113    0.0156    0.0037    0.0813    0.4806    0.2171;
    0.0290    0.0128    0.0060    0.0087    0.0110    0.0154    0.0037    0.0807    0.4790    0.2122;
    0.0286    0.0129    0.0060    0.0087    0.0109    0.0155    0.0037    0.0809    0.4812    0.2138;
    0.0289    0.0132    0.0061    0.0087    0.0108    0.0158    0.0038    0.0812    0.4836    0.2168;
    0.0291    0.0133    0.0062    0.0087    0.0108    0.0158    0.0037    0.0823    0.4868    0.2186;
    0.0294    0.0131    0.0061    0.0087    0.0109    0.0158    0.0037    0.0832    0.4960    0.2188;
    0.0294    0.0129    0.0061    0.0087    0.0109    0.0156    0.0037    0.0820    0.4976    0.2195;
    0.0292    0.0129    0.0061    0.0088    0.0109    0.0155    0.0037    0.0810    0.4972    0.2217;
    0.0294    0.0130    0.0061    0.0088    0.0110    0.0157    0.0037    0.0822    0.5009    0.2265;
    0.0298    0.0130    0.0061    0.0087    0.0109    0.0158    0.0038    0.0837    0.5082    0.2283;
    0.0296    0.0127    0.0060    0.0086    0.0107    0.0157    0.0037    0.0846    0.5062    0.2257;
    0.0292    0.0126    0.0059    0.0086    0.0106    0.0157    0.0036    0.0841    0.4986    0.2227;
    0.0289    0.0127    0.0059    0.0088    0.0108    0.0156    0.0036    0.0825    0.4949    0.2238;
    0.0294    0.0127    0.0059    0.0089    0.0108    0.0155    0.0037    0.0819    0.4946    0.2202;
    0.0300    0.0127    0.0059    0.0090    0.0108    0.0154    0.0037    0.0822    0.4950    0.2217;
    0.0301    0.0131    0.0060    0.0088    0.0108    0.0155    0.0038    0.0823    0.4918    0.2218;
    0.0297    0.0131    0.0060    0.0086    0.0106    0.0157    0.0038    0.0821    0.4851    0.2162;
    0.0294    0.0132    0.0060    0.0086    0.0104    0.0155    0.0038    0.0813    0.4845    0.2104;
    0.0293    0.0132    0.0059    0.0087    0.0105    0.0153    0.0038    0.0805    0.4869    0.2126;
    0.0298    0.0133    0.0059    0.0087    0.0106    0.0154    0.0037    0.0799    0.4903    0.2165;
    0.0300    0.0130    0.0059    0.0086    0.0105    0.0159    0.0037    0.0800    0.4942    0.2185;
    0.0298    0.0127    0.0059    0.0085    0.0107    0.0159    0.0038    0.0803    0.4903    0.2216;
    0.0295    0.0127    0.0059    0.0085    0.0109    0.0158    0.0039    0.0807    0.4868    0.2231;
    0.0294    0.0129    0.0059    0.0086    0.0109    0.0158    0.0038    0.0808    0.4860    0.2230;
    0.0293    0.0130    0.0058    0.0087    0.0109    0.0158    0.0037    0.0802    0.4838    0.2220;
    0.0291    0.0129    0.0058    0.0086    0.0109    0.0156    0.0037    0.0803    0.4822    0.2194;
    0.0285    0.0128    0.0058    0.0084    0.0107    0.0155    0.0036    0.0811    0.4820    0.2151;
    0.0279    0.0127    0.0058    0.0084    0.0105    0.0155    0.0037    0.0814    0.4824    0.2145;
    0.0281    0.0125    0.0058    0.0086    0.0107    0.0155    0.0038    0.0813    0.4836    0.2176;
    0.0292    0.0125    0.0058    0.0086    0.0108    0.0155    0.0038    0.0815    0.4864    0.2192;
    0.0299    0.0127    0.0058    0.0085    0.0106    0.0155    0.0037    0.0812    0.4884    0.2187;
    0.0299    0.0128    0.0058    0.0086    0.0107    0.0157    0.0037    0.0812    0.4879    0.2196;
    0.0299    0.0128    0.0058    0.0087    0.0109    0.0157    0.0037    0.0821    0.4877    0.2188;
    0.0297    0.0129    0.0058    0.0087    0.0111    0.0154    0.0037    0.0818    0.4876    0.2172;
    0.0293    0.0130    0.0058    0.0087    0.0110    0.0154    0.0038    0.0816    0.4862    0.2195;
    0.0288    0.0131    0.0058    0.0088    0.0109    0.0155    0.0039    0.0820    0.4850    0.2202;
    0.0289    0.0129    0.0058    0.0087    0.0108    0.0155    0.0039    0.0825    0.4851    0.2219;
    0.0291    0.0128    0.0058    0.0087    0.0107    0.0156    0.0038    0.0824    0.4844    0.2231;
    0.0288    0.0129    0.0058    0.0087    0.0107    0.0155    0.0038    0.0815    0.4855    0.2223;
    0.0287    0.0130    0.0059    0.0088    0.0109    0.0154    0.0037    0.0804    0.4915    0.2233;
    0.0287    0.0129    0.0059    0.0088    0.0110    0.0155    0.0037    0.0795    0.4940    0.2221;
    0.0289    0.0128    0.0059    0.0088    0.0110    0.0156    0.0037    0.0802    0.4936    0.2209;
    0.0294    0.0127    0.0059    0.0087    0.0109    0.0155    0.0038    0.0804    0.4933    0.2201;
    0.0296    0.0128    0.0059    0.0086    0.0106    0.0155    0.0038    0.0806    0.4882    0.2159;
    0.0294    0.0129    0.0059    0.0086    0.0107    0.0154    0.0038    0.0806    0.4837    0.2177;
    0.0292    0.0128    0.0060    0.0087    0.0109    0.0153    0.0038    0.0803    0.4788    0.2184;
    0.0291    0.0128    0.0060    0.0088    0.0110    0.0154    0.0037    0.0809    0.4748    0.2191;
    0.0289    0.0129    0.0060    0.0088    0.0111    0.0156    0.0037    0.0801    0.4737    0.2215;
    0.0286    0.0127    0.0060    0.0088    0.0111    0.0155    0.0038    0.0794    0.4756    0.2193;
    0.0282    0.0126    0.0059    0.0087    0.0109    0.0154    0.0038    0.0794    0.4759    0.2161;
    0.0282    0.0126    0.0059    0.0086    0.0108    0.0153    0.0037    0.0781    0.4765    0.2156;
    0.0285    0.0129    0.0060    0.0085    0.0107    0.0153    0.0037    0.0796    0.4794    0.2153;
    0.0286    0.0130    0.0060    0.0086    0.0108    0.0155    0.0036    0.0811    0.4787    0.2169;
    0.0285    0.0128    0.0059    0.0087    0.0109    0.0156    0.0038    0.0815    0.4776    0.2177;
    0.0283    0.0126    0.0058    0.0086    0.0107    0.0155    0.0038    0.0809    0.4753    0.2187;
    0.0282    0.0125    0.0057    0.0085    0.0105    0.0155    0.0037    0.0807    0.4739    0.2167;
    0.0282    0.0126    0.0056    0.0085    0.0104    0.0154    0.0036    0.0801    0.4769    0.2136;
    0.0285    0.0127    0.0057    0.0087    0.0106    0.0152    0.0036    0.0797    0.4786    0.2124;
    0.0288    0.0127    0.0057    0.0087    0.0108    0.0152    0.0036    0.0796    0.4809    0.2155;
    0.0291    0.0126    0.0056    0.0086    0.0106    0.0153    0.0036    0.0804    0.4798    0.2158;
    0.0290    0.0125    0.0056    0.0084    0.0104    0.0152    0.0036    0.0803    0.4729    0.2141;
    0.0287    0.0125    0.0058    0.0085    0.0105    0.0150    0.0036    0.0803    0.4705    0.2123;
    0.0286    0.0127    0.0058    0.0087    0.0107    0.0150    0.0037    0.0801    0.4762    0.2112;
    0.0286    0.0128    0.0059    0.0088    0.0110    0.0153    0.0038    0.0791    0.4815    0.2180;
    0.0288    0.0127    0.0059    0.0087    0.0110    0.0157    0.0038    0.0782    0.4854    0.2216;
    0.0288    0.0127    0.0058    0.0086    0.0109    0.0159    0.0037    0.0779    0.4850    0.2185;
    0.0292    0.0127    0.0057    0.0086    0.0108    0.0157    0.0037    0.0778    0.4839    0.2175;
    0.0292    0.0127    0.0057    0.0086    0.0107    0.0154    0.0037    0.0777    0.4882    0.2165;
    0.0287    0.0127    0.0057    0.0086    0.0106    0.0153    0.0037    0.0781    0.4837    0.2140;
    0.0284    0.0126    0.0058    0.0087    0.0106    0.0153    0.0037    0.0784    0.4750    0.2126;
    0.0289    0.0126    0.0059    0.0089    0.0109    0.0153    0.0037    0.0778    0.4734    0.2155;
    0.0290    0.0126    0.0059    0.0089    0.0109    0.0154    0.0036    0.0775    0.4728    0.2160;
    0.0286    0.0128    0.0058    0.0088    0.0109    0.0154    0.0037    0.0780    0.4732    0.2152;
    0.0284    0.0129    0.0058    0.0087    0.0110    0.0153    0.0039    0.0792    0.4739    0.2177;
    0.0281    0.0127    0.0058    0.0087    0.0108    0.0152    0.0038    0.0800    0.4746    0.2148;
    0.0278    0.0125    0.0058    0.0088    0.0107    0.0150    0.0037    0.0793    0.4766    0.2150;
    0.0277    0.0124    0.0058    0.0088    0.0107    0.0149    0.0036    0.0784    0.4785    0.2152;
    0.0281    0.0124    0.0058    0.0088    0.0108    0.0150    0.0036    0.0781    0.4794    0.2148;
    0.0288    0.0123    0.0057    0.0088    0.0111    0.0154    0.0036    0.0789    0.4784    0.2168;
    0.0288    0.0120    0.0056    0.0086    0.0109    0.0155    0.0035    0.0793    0.4733    0.2116;
    0.0281    0.0118    0.0055    0.0085    0.0106    0.0153    0.0035    0.0794    0.4702    0.2090;
    0.0276    0.0116    0.0054    0.0085    0.0104    0.0152    0.0035    0.0791    0.4697    0.2104;
    0.0277    0.0116    0.0054    0.0084    0.0101    0.0152    0.0036    0.0788    0.4688    0.2096;
    0.0280    0.0119    0.0055    0.0082    0.0100    0.0149    0.0036    0.0789    0.4733    0.2126;
    0.0283    0.0122    0.0056    0.0082    0.0101    0.0148    0.0036    0.0788    0.4797    0.2179;
    0.0286    0.0124    0.0058    0.0083    0.0103    0.0149    0.0037    0.0790    0.4824    0.2190;
    0.0289    0.0125    0.0058    0.0085    0.0105    0.0147    0.0037    0.0798    0.4808    0.2186;
    0.0291    0.0126    0.0058    0.0086    0.0106    0.0149    0.0036    0.0808    0.4836    0.2150;
    0.0290    0.0127    0.0059    0.0087    0.0108    0.0151    0.0037    0.0818    0.4842    0.2138;
    0.0288    0.0127    0.0059    0.0088    0.0109    0.0153    0.0038    0.0808    0.4855    0.2150;
    0.0286    0.0127    0.0058    0.0088    0.0109    0.0152    0.0038    0.0795    0.4850    0.2131;
    0.0282    0.0127    0.0058    0.0089    0.0110    0.0148    0.0037    0.0783    0.4832    0.2098;
    0.0286    0.0127    0.0059    0.0089    0.0111    0.0150    0.0037    0.0793    0.4910    0.2098;
    0.0287    0.0126    0.0059    0.0089    0.0110    0.0153    0.0037    0.0802    0.4911    0.2115;
    0.0284    0.0125    0.0058    0.0088    0.0110    0.0154    0.0038    0.0803    0.4861    0.2134;
    0.0282    0.0124    0.0058    0.0087    0.0111    0.0153    0.0038    0.0797    0.4817    0.2142;
    0.0280    0.0123    0.0057    0.0086    0.0112    0.0152    0.0038    0.0788    0.4813    0.2130;
    0.0278    0.0122    0.0057    0.0085    0.0109    0.0152    0.0037    0.0781    0.4846    0.2095;
    0.0278    0.0123    0.0057    0.0084    0.0107    0.0152    0.0037    0.0785    0.4839    0.2091;
    0.0285    0.0125    0.0058    0.0085    0.0107    0.0151    0.0036    0.0788    0.4823    0.2130;
    0.0291    0.0126    0.0058    0.0086    0.0109    0.0150    0.0037    0.0779    0.4846    0.2196;
    0.0289    0.0127    0.0058    0.0087    0.0110    0.0149    0.0036    0.0771    0.4849    0.2219;
    0.0285    0.0127    0.0058    0.0088    0.0109    0.0149    0.0036    0.0768    0.4871    0.2208;
    0.0283    0.0127    0.0058    0.0088    0.0109    0.0151    0.0036    0.0767    0.4903    0.2213;
    0.0284    0.0126    0.0058    0.0088    0.0111    0.0151    0.0036    0.0773    0.4948    0.2220;
    0.0284    0.0125    0.0057    0.0089    0.0110    0.0148    0.0036    0.0783    0.4895    0.2219;
    0.0281    0.0126    0.0057    0.0088    0.0108    0.0146    0.0036    0.0786    0.4854    0.2187;
    0.0280    0.0126    0.0056    0.0087    0.0107    0.0148    0.0036    0.0780    0.4855    0.2163;
    0.0282    0.0126    0.0056    0.0087    0.0106    0.0147    0.0036    0.0778    0.4875    0.2129;
    0.0282    0.0127    0.0055    0.0086    0.0106    0.0147    0.0035    0.0783    0.4810    0.2101;
    0.0283    0.0127    0.0056    0.0086    0.0105    0.0148    0.0035    0.0789    0.4783    0.2092;
    0.0282    0.0125    0.0056    0.0087    0.0105    0.0148    0.0035    0.0794    0.4781    0.2117;
    0.0280    0.0125    0.0055    0.0087    0.0106    0.0147    0.0034    0.0803    0.4787    0.2146;
    0.0276    0.0126    0.0055    0.0086    0.0106    0.0146    0.0035    0.0807    0.4800    0.2163;
    0.0276    0.0126    0.0056    0.0086    0.0106    0.0145    0.0035    0.0804    0.4895    0.2187;
    0.0276    0.0125    0.0057    0.0087    0.0107    0.0145    0.0035    0.0804    0.4974    0.2226;
    0.0273    0.0125    0.0056    0.0087    0.0109    0.0147    0.0035    0.0813    0.4972    0.2247;
    0.0271    0.0123    0.0056    0.0087    0.0109    0.0148    0.0035    0.0809    0.4962    0.2270;
    0.0269    0.0120    0.0055    0.0085    0.0109    0.0147    0.0035    0.0802    0.4963    0.2310;
    0.0266    0.0117    0.0053    0.0084    0.0108    0.0145    0.0035    0.0799    0.4967    0.2337;
    0.0261    0.0116    0.0052    0.0082    0.0106    0.0143    0.0034    0.0799    0.4966    0.2325;
    0.0256    0.0116    0.0052    0.0081    0.0105    0.0144    0.0033    0.0803    0.4976    0.2352;
    0.0253    0.0115    0.0051    0.0083    0.0105    0.0145    0.0032    0.0812    0.5009    0.2378;
    0.0252    0.0113    0.0050    0.0082    0.0105    0.0147    0.0031    0.0821    0.5013    0.2411;
    0.0245    0.0109    0.0049    0.0081    0.0103    0.0148    0.0032    0.0808    0.5011    0.2427;
    0.0236    0.0106    0.0048    0.0080    0.0101    0.0145    0.0030    0.0840    0.5088    0.2495;
    0.0225    0.0103    0.0046    0.0078    0.0097    0.0143    0.0026    0.0922    0.5165    0.2546;
    0.0214    0.0098    0.0044    0.0076    0.0095    0.0143    0.0023    0.1073    0.5330    0.2609;
    0.0205    0.0090    0.0042    0.0073    0.0094    0.0141    0.0022    0.1322    0.5801    0.2722;
    0.0192    0.0080    0.0038    0.0069    0.0091    0.0140    0.0025    0.1677    0.6842    0.2874;
    0.0175    0.0072    0.0034    0.0062    0.0083    0.0137    0.0029    0.1917    0.8002    0.3027;
    0.0163    0.0073    0.0031    0.0054    0.0072    0.0130    0.0031    0.1957    0.8584    0.3495;
    0.0166    0.0081    0.0033    0.0054    0.0069    0.0116    0.0033    0.1775    0.8287    0.4177;
    0.0188    0.0092    0.0039    0.0060    0.0075    0.0101    0.0033    0.1458    0.7328    0.4615;
    0.0204    0.0098    0.0042    0.0068    0.0086    0.0098    0.0034    0.1185    0.6522    0.4208;
    0.0217    0.0102    0.0044    0.0074    0.0093    0.0109    0.0033    0.0993    0.5908    0.3402;
    0.0226    0.0105    0.0046    0.0076    0.0096    0.0123    0.0034    0.0876    0.5484    0.2909;
    0.0235    0.0109    0.0048    0.0078    0.0097    0.0131    0.0035    0.0819    0.5272    0.2666;
    0.0240    0.0112    0.0049    0.0079    0.0099    0.0136    0.0035    0.0806    0.5156    0.2579;
    0.0248    0.0113    0.0050    0.0080    0.0100    0.0140    0.0035    0.0808    0.5051    0.2513;
